Wavelength (nm)	Absorbance
200,0	3,490
201,0	3,502
202,0	3,507
203,0	3,522
204,0	3,537
205,0	3,564
206,0	3,579
207,0	3,592
208,0	3,616
209,0	3,638
210,0	3,653
211,0	3,690
212,0	3,715
213,0	3,740
214,0	3,777
215,0	3,799
216,0	3,824
217,0	3,861
218,0	3,890
219,0	3,925
220,0	3,970
221,0	3,988
222,0	4,018
223,0	4,047
224,0	4,083
225,0	4,121
226,0	4,124
227,0	4,162
228,0	4,174
229,0	4,181
230,0	4,196
231,0	4,196
232,0	4,214
233,0	4,210
234,0	4,193
235,0	4,199
236,0	4,238
237,0	4,212
238,0	4,214
239,0	4,177
240,0	4,159
241,0	4,134
242,0	4,112
243,0	4,075
244,0	4,065
245,0	4,036
246,0	3,995
247,0	3,958
248,0	3,927
249,0	3,888
250,0	3,850
251,0	3,815
252,0	3,778
253,0	3,725
254,0	3,690
255,0	3,642
256,0	3,597
257,0	3,550
258,0	3,498
259,0	3,451
260,0	3,397
261,0	3,345
262,0	3,289
263,0	3,234
264,0	3,178
265,0	3,119
266,0	3,067
267,0	3,007
268,0	2,950
269,0	2,893
270,0	2,838
271,0	2,782
272,0	2,728
273,0	2,677
274,0	2,630
275,0	2,587
276,0	2,543
277,0	2,504
278,0	2,468
279,0	2,434
280,0	2,403
281,0	2,374
282,0	2,350
283,0	2,328
284,0	2,307
285,0	2,289
286,0	2,271
287,0	2,255
288,0	2,243
289,0	2,227
290,0	2,218
291,0	2,207
292,0	2,197
293,0	2,188
294,0	2,177
295,0	2,169
296,0	2,160
297,0	2,151
298,0	2,142
299,0	2,134
300,0	2,126
301,0	2,118
302,0	2,108
303,0	2,099
304,0	2,088
305,0	2,077
306,0	2,065
307,0	2,053
308,0	2,037
309,0	2,023
310,0	2,006
311,0	1,990
312,0	1,974
313,0	1,955
314,0	1,937
315,0	1,920
316,0	1,902
317,0	1,885
318,0	1,868
319,0	1,850
320,0	1,832
321,0	1,815
322,0	1,798
323,0	1,780
324,0	1,763
325,0	1,745
326,0	1,727
327,0	1,707
328,0	1,689
329,0	1,671
330,0	1,651
331,0	1,632
332,0	1,613
333,0	1,592
334,0	1,572
335,0	1,552
336,0	1,531
337,0	1,512
338,0	1,494
339,0	1,476
340,0	1,459
341,0	1,443
342,0	1,426
343,0	1,410
344,0	1,395
345,0	1,381
346,0	1,366
347,0	1,353
348,0	1,339
349,0	1,325
350,0	1,312
351,0	1,299
352,0	1,286
353,0	1,274
354,0	1,262
355,0	1,250
356,0	1,238
357,0	1,227
358,0	1,216
359,0	1,206
360,0	1,196
361,0	1,186
362,0	1,176
363,0	1,166
364,0	1,156
365,0	1,145
366,0	1,135
367,0	1,125
368,0	1,114
369,0	1,103
370,0	1,092
371,0	1,081
372,0	1,070
373,0	1,058
374,0	1,048
375,0	1,037
376,0	1,027
377,0	1,016
378,0	1,006
379,0	0,996
380,0	0,986
381,0	0,976
382,0	0,967
383,0	0,957
384,0	0,948
385,0	0,939
386,0	0,930
387,0	0,920
388,0	0,912
389,0	0,903
390,0	0,894
391,0	0,886
392,0	0,877
393,0	0,868
394,0	0,860
395,0	0,851
396,0	0,842
397,0	0,834
398,0	0,826
399,0	0,818
400,0	0,810
401,0	0,802
402,0	0,794
403,0	0,786
404,0	0,778
405,0	0,771
406,0	0,764
407,0	0,756
408,0	0,749
409,0	0,741
410,0	0,734
411,0	0,727
412,0	0,720
413,0	0,714
414,0	0,707
415,0	0,700
416,0	0,694
417,0	0,688
418,0	0,681
419,0	0,675
420,0	0,669
421,0	0,663
422,0	0,657
423,0	0,651
424,0	0,646
425,0	0,640
426,0	0,634
427,0	0,628
428,0	0,623
429,0	0,617
430,0	0,611
431,0	0,606
432,0	0,600
433,0	0,595
434,0	0,589
435,0	0,584
436,0	0,579
437,0	0,574
438,0	0,569
439,0	0,565
440,0	0,560
441,0	0,555
442,0	0,551
443,0	0,547
444,0	0,542
445,0	0,538
446,0	0,533
447,0	0,529
448,0	0,524
449,0	0,520
450,0	0,516
451,0	0,512
452,0	0,508
453,0	0,504
454,0	0,500
455,0	0,497
456,0	0,493
457,0	0,489
458,0	0,485
459,0	0,482
460,0	0,478
461,0	0,475
462,0	0,471
463,0	0,468
464,0	0,465
465,0	0,461
466,0	0,458
467,0	0,455
468,0	0,451
469,0	0,448
470,0	0,445
471,0	0,442
472,0	0,439
473,0	0,436
474,0	0,433
475,0	0,430
476,0	0,427
477,0	0,424
478,0	0,421
479,0	0,418
480,0	0,415
481,0	0,412
482,0	0,410
483,0	0,407
484,0	0,404
485,0	0,402
486,0	0,399
487,0	0,397
488,0	0,394
489,0	0,392
490,0	0,389
491,0	0,387
492,0	0,384
493,0	0,382
494,0	0,380
495,0	0,377
496,0	0,375
497,0	0,373
498,0	0,370
499,0	0,368
500,0	0,366
501,0	0,364
502,0	0,361
503,0	0,359
504,0	0,357
505,0	0,355
506,0	0,353
507,0	0,351
508,0	0,348
509,0	0,346
510,0	0,344
511,0	0,342
512,0	0,340
513,0	0,339
514,0	0,337
515,0	0,335
516,0	0,333
517,0	0,331
518,0	0,329
519,0	0,327
520,0	0,325
521,0	0,323
522,0	0,322
523,0	0,320
524,0	0,318
525,0	0,316
526,0	0,314
527,0	0,312
528,0	0,311
529,0	0,309
530,0	0,307
531,0	0,305
532,0	0,304
533,0	0,302
534,0	0,301
535,0	0,299
536,0	0,298
537,0	0,296
538,0	0,294
539,0	0,293
540,0	0,291
541,0	0,289
542,0	0,288
543,0	0,287
544,0	0,285
545,0	0,284
546,0	0,282
547,0	0,281
548,0	0,279
549,0	0,278
550,0	0,276
551,0	0,275
552,0	0,273
553,0	0,272
554,0	0,270
555,0	0,269
556,0	0,268
557,0	0,266
558,0	0,265
559,0	0,264
560,0	0,263
561,0	0,261
562,0	0,260
563,0	0,259
564,0	0,258
565,0	0,256
566,0	0,255
567,0	0,254
568,0	0,252
569,0	0,251
570,0	0,250
571,0	0,249
572,0	0,247
573,0	0,246
574,0	0,245
575,0	0,244
576,0	0,243
577,0	0,242
578,0	0,240
579,0	0,239
580,0	0,238
581,0	0,237
582,0	0,236
583,0	0,235
584,0	0,234
585,0	0,233
586,0	0,232
587,0	0,231
588,0	0,230
589,0	0,229
590,0	0,228
591,0	0,227
592,0	0,226
593,0	0,225
594,0	0,224
595,0	0,223
596,0	0,222
597,0	0,221
598,0	0,220
599,0	0,219
600,0	0,218
601,0	0,217
602,0	0,216
603,0	0,215
604,0	0,214
605,0	0,213
606,0	0,212
607,0	0,212
608,0	0,211
609,0	0,210
610,0	0,209
611,0	0,208
612,0	0,207
613,0	0,206
614,0	0,205
615,0	0,205
616,0	0,204
617,0	0,203
618,0	0,202
619,0	0,201
620,0	0,200
621,0	0,200
622,0	0,199
623,0	0,198
624,0	0,197
625,0	0,196
626,0	0,196
627,0	0,195
628,0	0,194
629,0	0,193
630,0	0,193
631,0	0,192
632,0	0,191
633,0	0,190
634,0	0,190
635,0	0,189
636,0	0,188
637,0	0,187
638,0	0,187
639,0	0,186
640,0	0,185
641,0	0,185
642,0	0,184
643,0	0,183
644,0	0,182
645,0	0,182
646,0	0,181
647,0	0,180
648,0	0,180
649,0	0,179
650,0	0,179
651,0	0,178
652,0	0,177
653,0	0,177
654,0	0,176
655,0	0,175
656,0	0,175
657,0	0,174
658,0	0,173
659,0	0,173
660,0	0,172
661,0	0,171
662,0	0,171
663,0	0,170
664,0	0,170
665,0	0,169
666,0	0,169
667,0	0,168
668,0	0,167
669,0	0,167
670,0	0,166
671,0	0,166
672,0	0,165
673,0	0,165
674,0	0,164
675,0	0,164
676,0	0,163
677,0	0,162
678,0	0,162
679,0	0,162
680,0	0,161
681,0	0,160
682,0	0,160
683,0	0,159
684,0	0,159
685,0	0,158
686,0	0,158
687,0	0,157
688,0	0,157
689,0	0,156
690,0	0,156
691,0	0,155
692,0	0,155
693,0	0,154
694,0	0,154
695,0	0,153
696,0	0,153
697,0	0,152
698,0	0,152
699,0	0,151
700,0	0,151
701,0	0,150
702,0	0,150
703,0	0,149
704,0	0,149
705,0	0,148
706,0	0,148
707,0	0,148
708,0	0,147
709,0	0,147
710,0	0,146
711,0	0,146
712,0	0,145
713,0	0,145
714,0	0,144
715,0	0,144
716,0	0,144
717,0	0,143
718,0	0,143
719,0	0,142
720,0	0,142
721,0	0,142
722,0	0,141
723,0	0,141
724,0	0,140
725,0	0,140
726,0	0,139
727,0	0,139
728,0	0,139
729,0	0,138
730,0	0,138
731,0	0,137
732,0	0,137
733,0	0,137
734,0	0,136
735,0	0,136
736,0	0,136
737,0	0,135
738,0	0,135
739,0	0,134
740,0	0,134
741,0	0,134
742,0	0,133
743,0	0,133
744,0	0,132
745,0	0,132
746,0	0,132
747,0	0,131
748,0	0,131
749,0	0,131
750,0	0,130
751,0	0,130
752,0	0,129
753,0	0,129
754,0	0,129
755,0	0,128
756,0	0,128
757,0	0,128
758,0	0,128
759,0	0,127
760,0	0,127
761,0	0,126
762,0	0,126
763,0	0,126
764,0	0,125
765,0	0,125
766,0	0,125
767,0	0,124
768,0	0,124
769,0	0,124
770,0	0,123
771,0	0,123
772,0	0,123
773,0	0,122
774,0	0,122
775,0	0,122
776,0	0,122
777,0	0,121
778,0	0,121
779,0	0,121
780,0	0,120
781,0	0,120
782,0	0,120
783,0	0,119
784,0	0,119
785,0	0,119
786,0	0,118
787,0	0,118
788,0	0,118
789,0	0,118
790,0	0,117
791,0	0,117
792,0	0,117
793,0	0,116
794,0	0,116
795,0	0,116
796,0	0,115
797,0	0,115
798,0	0,115
799,0	0,114
800,0	0,114
